File: data/spectra/lawn_insitu.txt
# Wavelength (nm), Reflectance
350.0000  0.01505
358.0000  0.01376
366.0000  0.01293
374.0000  0.01297
382.0000  0.01378
390.0000  0.01402
398.0000  0.01456
406.0000  0.01586
414.0000  0.01866
422.0000  0.02164
430.0000  0.02418
438.0000  0.02577
446.0000  0.02703
454.0000  0.02833
462.0000  0.02910
470.0000  0.02951
478.0000  0.02986
486.0000  0.03044
494.0000  0.03162
502.0000  0.03445
510.0000  0.04017
518.0000  0.05089
526.0000  0.06533
534.0000  0.07759
542.0000  0.08423
550.0000  0.08810
558.0000  0.08807
566.0000  0.08197
574.0000  0.07285
582.0000  0.06605
590.0000  0.06228
598.0000  0.06039
606.0000  0.05812
614.0000  0.05363
622.0000  0.05016
630.0000  0.04933
638.0000  0.04800
646.0000  0.04375
654.0000  0.04048
662.0000  0.03641
670.0000  0.03323
678.0000  0.03284
686.0000  0.03658
694.0000  0.05391
702.0000  0.09101
710.0000  0.13573
718.0000  0.19354
726.0000  0.26928
734.0000  0.34824
742.0000  0.41250
750.0000  0.45261
758.0000  0.47381
766.0000  0.48988
774.0000  0.48977
782.0000  0.49356
790.0000  0.49665
798.0000  0.50053
806.0000  0.50248
814.0000  0.50571
822.0000  0.50972
830.0000  0.51134
838.0000  0.51320
846.0000  0.51600
854.0000  0.51766
862.0000  0.51882
870.0000  0.52318
878.0000  0.52507
886.0000  0.52550
894.0000  0.52920
902.0000  0.53095
910.0000  0.53271
918.0000  0.53216
926.0000  0.53175
934.0000  0.53408
942.0000  0.52947
950.0000  0.52335
958.0000  0.51464
966.0000  0.51043
974.0000  0.50820
982.0000  0.51021
990.0000  0.51213
998.0000  0.51513
1006 0.52093
1014 0.52586
1022 0.53122
1030 0.53699
1038 0.54175
1046 0.54595
1054 0.54947
1062 0.55208
1070 0.55433
1078 0.55507
1086 0.55564
1094 0.55547
1102 0.55544
1110 0.55526
1118 0.55560
1126 0.55120
1134 0.53596
1142 0.51797
1150 0.49502
1158 0.48109
1166 0.47481
1174 0.47158
1182 0.46955
1190 0.46689
1198 0.46640
1206 0.46740
1214 0.47002
1222 0.47345
1230 0.47765
1238 0.48137
1246 0.48556
1254 0.48916
1262 0.49229
1270 0.49356
1278 0.49303
1286 0.49031
1294 0.48583
1302 0.47868
1310 0.46850
1318 0.45465
1326 0.43971
1334 0.42109
1342 0.40624
1350 0.39805
1358 0.39230
1366 0.38063
1374 0.35779
1382 0.31324
1390 0.23695
1398 0.18964
1406 0.14928
1414 0.12697
1422 0.11480
1430 0.10764
1438 0.10202
1446 0.09904
1454 0.09778
1462 0.09830
1470 0.10205
1478 0.10758
1486 0.11447
1494 0.12182
1502 0.12995
1510 0.13918
1518 0.14895
1526 0.15873
1534 0.16867
1542 0.17840
1550 0.18830
1558 0.19770
1566 0.20651
1574 0.21525
1582 0.22352
1590 0.23099
1598 0.23819
1606 0.24545
1614 0.25176
1622 0.25727
1630 0.26342
1638 0.26715
1646 0.27138
1654 0.27403
1662 0.27588
1670 0.27692
1678 0.27720
1686 0.27555
1694 0.27283
1702 0.27004
1710 0.26667
1718 0.26283
1726 0.25883
1734 0.25454
1742 0.24965
1750 0.24346
1758 0.23718
1766 0.23153
1774 0.22725
1782 0.22552
1790 0.22545
1798 0.22705
1806 0.22918
1814 0.23372
1822 0.23793
1830 0.26448
1838 0.31656
1846 0.41814
1854 0.42877
1862 0.21386
1870 0.22686
1878 0.13009
1886 0.10048
1894 0.08331
1902 0.08097
1910 0.05326
1918 0.03952
1926 0.03193
1934 0.02905
1942 0.02932
1950 0.03039
1958 0.03179
1966 0.03386
1974 0.03525
1982 0.03779
1990 0.04041
1998 0.04308
2006 0.05021
2014 0.05428
2022 0.05724
2030 0.05955
2038 0.06208
2046 0.06567
2054 0.06996
2062 0.07412
2070 0.07823
2078 0.08251
2086 0.08617
2094 0.09058
2102 0.09450
2110 0.09898
2118 0.10319
2126 0.10740
2134 0.11090
2142 0.11453
2150 0.11823
2158 0.12079
2166 0.12180
2174 0.12334
2182 0.12392
2190 0.12608
2198 0.12700
2206 0.12846
2214 0.12696
2222 0.12780
2230 0.12442
2238 0.12285
2246 0.11922
2254 0.11663
2262 0.11413
2270 0.10972
2278 0.10643
2286 0.10420
2294 0.10097
2302 0.09644
2310 0.09206
2318 0.08923
2326 0.08706
2334 0.08489
2342 0.08117
2350 0.07858
2358 0.07543
2366 0.07255
2374 0.06692
2382 0.06582
2390 0.06363
2398 0.05807
2406 0.05347
2414 0.05401
2422 0.05000
2430 0.04491
2438 0.03851
2446 0.03528
2454 0.03664
2462 0.03291
2470 0.02503
2478 0.03069
2486 0.00000
2494 0.00000
2500 0.00881